 0   0   'Jason Heat Flow'
 0.000000  0.000000  0000  0.0
9999 1 5
   46
   251
         1815.8   1872.5   1888.3   1859.5   1908.4   1868.9 
   41    1812.0   1860.0   1877.0   1851.0   1900.0   1860.4 
   42    1812.0   1860.0   1878.0   1851.0   1900.0   1860.4 
   43    1812.0   1860.0   1878.0   1851.0   1901.0   1860.4 
   44    1818.0   1864.0   1878.0   1854.0   1908.0   1860.4 
   45    1856.0   1907.0   1892.0   1850.0   1904.0   1860.4 
   46    2007.0   2020.0   1945.0   1856.0   1903.0   1860.4 
   47    2222.0   2162.0   2013.0   1880.0   1905.0   1860.4 
   48    2404.0   2282.0   2076.0   1908.0   1910.0   1860.4 
   49    2620.0   2427.0   2156.0   1945.0   1913.0   1860.4 
   50    2818.0   2563.0   2234.0   1983.0   1916.0   1860.4 
   51    2830.0   2662.0   2295.0   2012.0   1918.0   1860.4 
   52    3115.0   2775.0   2365.0   2046.0   1921.0   1860.4 
   53    3252.0   2875.0   2429.0   2077.0   1924.0   1860.4 
   54    3369.0   2963.0   2487.0   2106.0   1926.0   1860.4 
   55    3452.0   3027.0   2530.0   2126.0   1927.0   1860.4 
   56    3543.0   3097.0   2579.0   2150.0   1930.0   1860.4 
   57    3623.0   3159.0   2623.0   2173.0   1932.0   1860.4 
   58    3679.0   3204.0   2655.0   2189.0   1933.0   1860.4 
   59    3740.0   3253.0   2692.0   2208.0   1935.0   1860.4 
   60    3794.0   3297.0   2724.0   2225.0   1936.0   1860.4 
   61    3832.0   3329.0   2749.0   2239.0   1938.0   1860.4 
   62    3875.0   3363.0   2777.0   2253.0   1939.0   1860.4 
   63    3913.0   3396.0   2803.0   2267.0   1941.0   1860.4 
   64    3939.0   3418.0   2821.0   2277.0   1941.0   1860.4 
   65    3970.0   3445.0   2843.0   2290.0   1943.0   1860.4 
   66    3996.0   3467.0   2862.0   2300.0   1944.0   1860.4 
   67    4020.0   3489.0   2881.0   2309.0   1944.0   1860.4 
   68    4038.0   3504.0   2894.0   2319.0   1945.0   1860.4 
   69    4058.0   3522.0   2911.0   2328.0   1946.0   1860.4 
   70    4076.0   3538.0   2925.0   2338.0   1947.0   1860.4 
   71    4089.0   3551.0   2937.0   2344.0   1948.0   1860.4 
   72    4104.0   3564.0   2949.0   2352.0   1948.0   1860.4 
   73    4118.0   3577.0   2961.0   2360.0   1948.0   1860.4 
   74    4128.0   3587.0   2971.0   2366.0   1949.0   1860.4 
   75    4140.0   3597.0   2982.0   2372.0   1949.0   1860.4 
   76    4150.0   3608.0   2992.0   2379.0   1949.0   1860.4 
   77    4159.0   3615.0   2999.0   2383.0   1949.0   1860.4 
   78    4169.0   3624.0   3008.0   2390.0   1949.0   1860.4 
   79    4177.0   3633.0   3017.0   2395.0   1949.0   1860.4 
   80    4185.0   3639.0   3024.0   2400.0   1950.0   1860.4 
   81    4191.0   3647.0   3031.0   2405.0   1950.0   1860.4 
   82    4199.0   3654.0   3039.0   2410.0   1950.0   1860.4 
   83    4206.0   3660.0   3045.0   2415.0   1951.0   1860.4 
   84    4211.0   3666.0   3052.0   2419.0   1951.0   1860.4 
   85    4218.0   3672.0   3058.0   2424.0   1952.0   1860.4 
   86    4223.0   3677.0   3064.0   2428.0   1951.0   1860.4 
   87    4228.0   3682.0   3069.0   2431.0   1951.0   1860.4 
   88    4233.0   3688.0   3076.0   2436.0   1952.0   1860.4 
   89    4237.0   3692.0   3080.0   2440.0   1951.0   1860.4 
   90    4242.0   3696.0   3085.0   2443.0   1950.0   1860.4 
   91    4246.0   3701.0   3090.0   2446.0   1949.0   1860.4 
   92    4251.0   3705.0   3094.0   2450.0   1948.0   1860.4 
   93    4254.0   3708.0   3098.0   2452.0   1947.0   1860.4 
   94    4258.0   3713.0   3103.0   2456.0   1947.0   1860.4 
   95    4262.0   3717.0   3107.0   2460.0   1947.0   1860.4 
   96    4266.0   3720.0   3112.0   2462.0   1947.0   1860.4 
   97    4268.0   3723.0   3114.0   2465.0   1947.0   1860.4 
   98    4272.0   3727.0   3119.0   2468.0   1947.0   1860.4 
   99    4275.0   3730.0   3123.0   2471.0   1948.0   1860.4 
   100    4278.0   3732.0   3125.0   2474.0   1948.0   1860.4 
   101    4281.0   3736.0   3129.0   2476.0   1948.0   1860.4 
   102    4284.0   3739.0   3133.0   2479.0   1948.0   1860.4 
   103    4286.0   3741.0   3135.0   2481.0   1948.0   1860.4 
   104    4289.0   3744.0   3138.0   2484.0   1948.0   1860.4 
   105    4291.0   3747.0   3141.0   2487.0   1948.0   1860.4 
   106    4293.0   3749.0   3144.0   2489.0   1947.0   1860.4 
   107    4296.0   3751.0   3147.0   2490.0   1946.0   1860.4 
   108    4298.0   3754.0   3150.0   2493.0   1947.0   1860.4 
   109    4301.0   3756.0   3152.0   2495.0   1947.0   1860.4 
   110    4303.0   3758.0   3155.0   2497.0   1946.0   1860.4 
   111    4305.0   3761.0   3158.0   2500.0   1947.0   1860.4 
   112    4307.0   3763.0   3160.0   2501.0   1946.0   1860.4 
   113    4309.0   3765.0   3163.0   2503.0   1946.0   1860.4 
   114    4311.0   3767.0   3165.0   2505.0   1946.0   1860.4 
   115    4313.0   3768.0   3168.0   2507.0   1946.0   1860.4 
   116    4314.0   3771.0   3170.0   2509.0   1946.0   1860.4 
   117    4317.0   3773.0   3172.0   2511.0   1947.0   1860.4 
   118    4318.0   3774.0   3174.0   2513.0   1947.0   1860.4 
   119    4320.0   3776.0   3176.0   2514.0   1948.0   1860.4 
   120    4321.0   3778.0   3178.0   2515.0   1948.0   1860.4 
   121    4323.0   3779.0   3180.0   2517.0   1948.0   1860.4 
   122    4324.0   3781.0   3182.0   2519.0   1949.0   1860.4 
   123    4326.0   3782.0   3184.0   2521.0   1949.0   1860.4 
   124    4328.0   3784.0   3186.0   2522.0   1949.0   1860.4 
   125    4328.0   3785.0   3187.0   2523.0   1949.0   1860.4 
   126    4331.0   3787.0   3189.0   2525.0   1950.0   1860.4 
   127    4332.0   3789.0   3191.0   2527.0   1951.0   1860.4 
   128    4333.0   3790.0   3192.0   2528.0   1951.0   1860.4 
   129    4335.0   3792.0   3194.0   2530.0   1951.0   1860.4 
   130    4336.0   3793.0   3196.0   2531.0   1951.0   1860.4 
   131    4337.0   3794.0   3198.0   2533.0   1951.0   1860.4 
   132    4339.0   3796.0   3199.0   2534.0   1951.0   1860.4 
   133    4340.0   3797.0   3201.0   2535.0   1951.0   1860.4 
   134    4341.0   3798.0   3202.0   2537.0   1950.0   1860.4 
   135    4342.0   3799.0   3203.0   2537.0   1949.0   1860.4 
   136    4343.0   3800.0   3204.0   2538.0   1949.0   1860.4 
   137    4344.0   3801.0   3207.0   2540.0   1949.0   1860.4 
   138    4345.0   3803.0   3208.0   2541.0   1949.0   1860.4 
   139    4346.0   3804.0   3209.0   2542.0   1948.0   1860.4 
   140    4347.0   3805.0   3210.0   2543.0   1948.0   1860.4 
   141    4349.0   3806.0   3212.0   2544.0   1948.0   1860.4 
   142    4350.0   3807.0   3213.0   2546.0   1948.0   1860.4 
   143    4351.0   3808.0   3214.0   2546.0   1948.0   1860.4 
   144    4352.0   3809.0   3215.0   2548.0   1947.0   1860.4 
   145    4352.0   3810.0   3217.0   2549.0   1947.0   1860.4 
   146    4354.0   3811.0   3218.0   2550.0   1948.0   1860.4 
   147    4354.0   3813.0   3219.0   2551.0   1947.0   1860.4 
   148    4355.0   3813.0   3220.0   2552.0   1946.0   1860.4 
   149    4356.0   3814.0   3221.0   2553.0   1946.0   1860.4 
   150    4357.0   3815.0   3223.0   2554.0   1947.0   1860.4 
   151    4358.0   3816.0   3224.0   2555.0   1947.0   1860.4 
   152    4358.0   3817.0   3224.0   2556.0   1947.0   1860.4 
   153    4360.0   3817.0   3226.0   2557.0   1947.0   1860.4 
   154    4360.0   3819.0   3227.0   2557.0   1947.0   1860.4 
   155    4361.0   3819.0   3228.0   2559.0   1947.0   1860.4 
   156    4362.0   3820.0   3229.0   2559.0   1946.0   1860.4 
   157    4363.0   3821.0   3230.0   2561.0   1945.0   1860.4 
   158    4364.0   3822.0   3231.0   2561.0   1945.0   1860.4 
   159    4364.0   3823.0   3232.0   2562.0   1945.0   1860.4 
   160    4365.0   3824.0   3233.0   2564.0   1944.0   1860.4 
   161    4366.0   3824.0   3234.0   2564.0   1944.0   1860.4 
   162    4367.0   3825.0   3235.0   2565.0   1945.0   1860.4 
   163    4367.0   3826.0   3236.0   2566.0   1944.0   1860.4 
   164    4368.0   3826.0   3236.0   2566.0   1944.0   1860.4 
   165    4369.0   3828.0   3238.0   2567.0   1944.0   1860.4 
   166    4369.0   3828.0   3238.0   2567.0   1944.0   1860.4 
   167    4370.0   3829.0   3240.0   2569.0   1945.0   1860.4 
   168    4371.0   3830.0   3240.0   2570.0   1945.0   1860.4 
   169    4371.0   3830.0   3241.0   2570.0   1945.0   1860.4 
   170    4372.0   3830.0   3241.0   2571.0   1946.0   1860.4 
   171    4373.0   3831.0   3242.0   2572.0   1947.0   1860.4 
   172    4373.0   3832.0   3243.0   2572.0   1947.0   1860.4 
   173    4374.0   3832.0   3244.0   2573.0   1947.0   1860.4 
   174    4374.0   3833.0   3245.0   2573.0   1948.0   1860.4 
   175    4375.0   3834.0   3245.0   2574.0   1947.0   1860.4 
   176    4375.0   3834.0   3246.0   2575.0   1947.0   1860.4 
   177    4376.0   3835.0   3247.0   2575.0   1946.0   1860.4 
   178    4377.0   3836.0   3247.0   2576.0   1947.0   1860.4 
   179    4377.0   3836.0   3249.0   2577.0   1947.0   1860.4 
   180    4377.0   3837.0   3249.0   2578.0   1947.0   1860.4 
   181    4378.0   3837.0   3250.0   2578.0   1948.0   1860.4 
   182    4379.0   3838.0   3251.0   2579.0   1948.0   1860.4 
   183    4380.0   3839.0   3252.0   2579.0   1949.0   1860.4 
   184    4379.0   3839.0   3252.0   2580.0   1949.0   1860.4 
   185    4380.0   3840.0   3253.0   2581.0   1949.0   1860.4 
   186    4381.0   3840.0   3253.0   2581.0   1949.0   1860.4 
   187    4381.0   3841.0   3254.0   2582.0   1949.0   1860.4 
   188    4382.0   3841.0   3254.0   2582.0   1949.0   1860.4 
   189    4382.0   3842.0   3255.0   2583.0   1949.0   1860.4 
   190    4383.0   3842.0   3256.0   2583.0   1948.0   1860.4 
   191    4384.0   3843.0   3257.0   2584.0   1949.0   1860.4 
   192    4383.0   3843.0   3257.0   2585.0   1948.0   1860.4 
   193    4384.0   3844.0   3258.0   2585.0   1948.0   1860.4 
   194    4385.0   3844.0   3258.0   2586.0   1949.0   1860.4 
   195    4385.0   3845.0   3259.0   2587.0   1949.0   1860.4 
   196    4386.0   3845.0   3260.0   2587.0   1948.0   1860.4 
   197    4386.0   3846.0   3260.0   2587.0   1948.0   1860.4 
   198    4387.0   3847.0   3261.0   2588.0   1948.0   1860.4 
   199    4387.0   3846.0   3261.0   2588.0   1947.0   1860.4 
   200    4387.0   3847.0   3262.0   2589.0   1948.0   1860.4 
   201    4388.0   3848.0   3263.0   2589.0   1948.0   1860.4 
   202    4388.0   3848.0   3263.0   2589.0   1947.0   1860.4 
   203    4388.0   3848.0   3263.0   2589.0   1948.0   1860.4 
   204    4389.0   3848.0   3263.0   2590.0   1948.0   1860.4 
   205    4389.0   3849.0   3265.0   2591.0   1949.0   1860.4 
   206    4390.0   3850.0   3265.0   2592.0   1949.0   1860.4 
   207    4390.0   3850.0   3265.0   2592.0   1949.0   1860.4 
   208    4391.0   3851.0   3266.0   2593.0   1949.0   1860.4 
   209    4391.0   3851.0   3266.0   2593.0   1948.0   1860.4 
   210    4391.0   3851.0   3267.0   2593.0   1948.0   1860.4 
   211    4392.0   3852.0   3267.0   2594.0   1948.0   1860.4 
   212    4392.0   3852.0   3268.0   2594.0   1949.0   1860.4 
   213    4393.0   3853.0   3269.0   2596.0   1950.0   1860.4 
   214    4393.0   3853.0   3269.0   2596.0   1949.0   1860.4 
   215    4393.0   3853.0   3270.0   2596.0   1950.0   1860.4 
   216    4393.0   3854.0   3270.0   2596.0   1949.0   1860.4 
   217    4394.0   3854.0   3270.0   2596.0   1949.0   1860.4 
   218    4395.0   3855.0   3271.0   2597.0   1950.0   1860.4 
   219    4394.0   3854.0   3271.0   2597.0   1949.0   1860.4 
   220    4395.0   3855.0   3272.0   2599.0   1951.0   1860.4 
   221    4396.0   3856.0   3272.0   2599.0   1951.0   1860.4 
   222    4395.0   3856.0   3272.0   2599.0   1950.0   1860.4 
   223    4396.0   3857.0   3273.0   2600.0   1951.0   1860.4 
   224    4396.0   3856.0   3274.0   2599.0   1950.0   1860.4 
   225    4397.0   3857.0   3274.0   2600.0   1951.0   1860.4 
   226    4397.0   3857.0   3274.0   2601.0   1951.0   1860.4 
   227    4398.0   3858.0   3275.0   2601.0   1951.0   1860.4 
   228    4398.0   3858.0   3275.0   2602.0   1950.0   1860.4 
   229    4398.0   3859.0   3275.0   2602.0   1949.0   1860.4 
   230    4398.0   3859.0   3276.0   2602.0   1949.0   1860.4 
   231    4398.0   3859.0   3276.0   2602.0   1948.0   1860.4 
   232    4399.0   3859.0   3277.0   2602.0   1949.0   1860.4 
   233    4400.0   3860.0   3277.0   2603.0   1948.0   1860.4 
   234    4399.0   3860.0   3277.0   2603.0   1947.0   1860.4 
   235    4400.0   3861.0   3278.0   2604.0   1947.0   1860.4 
   236    4400.0   3861.0   3278.0   2604.0   1946.0   1860.4 
   237    4400.0   3861.0   3278.0   2604.0   1946.0   1860.4 
   238    4400.0   3861.0   3279.0   2605.0   1945.0   1860.4 
   239    4400.0   3861.0   3279.0   2605.0   1945.0   1860.4 
   240    4401.0   3862.0   3280.0   2606.0   1946.0   1860.4 
   241    4401.0   3862.0   3281.0   2606.0   1945.0   1860.4 
   242    4401.0   3862.0   3280.0   2606.0   1944.0   1860.4 
   243    4402.0   3863.0   3281.0   2607.0   1945.0   1860.4 
   244    4402.0   3863.0   3281.0   2607.0   1945.0   1860.4 
   245    4403.0   3863.0   3282.0   2607.0   1945.0   1860.4 
   246    4403.0   3864.0   3282.0   2607.0   1945.0   1860.4 
   247    4403.0   3863.0   3282.0   2607.0   1944.0   1860.4 
   248    4404.0   3864.0   3282.0   2608.0   1945.0   1860.4 
   249    4403.0   3864.0   3283.0   2608.0   1945.0   1860.4 
   250    4404.0   3865.0   3283.0   2609.0   1946.0   1860.4 
   251    4404.0   3865.0   3284.0   2609.0   1947.0   1860.4 
   252    4420.0   3963.0   3310.0   2625.0   1994.0   1860.4 
   253    4683.0   4643.0   3569.0   2871.0   2524.0   1860.4 
   254    5089.0   5365.0   3908.0   3263.0   3117.0   1860.4 
   255    5701.0   6260.0   4386.0   3852.0   3827.0   1860.4 
   256    6323.0   7067.0   4857.0   4442.0   4442.0   1860.4 
   257    6903.0   7769.0   5293.0   4982.0   4864.0   1860.4 
   258    7326.0   8262.0   5612.0   5367.0   5317.0   1860.4 
   259    7802.0   8802.0   5972.0   5794.0   5707.0   1860.4 
   260    8222.0   9270.0   6293.0   6164.0   6046.0   1860.4 
   261    8522.0   9600.0   6524.0   6426.0   6286.0   1860.4 
   262    8837.0   9869.0   6759.0   6699.0   6495.0   1860.4 
   263    8887.0   9534.0   6750.0   6718.0   6213.0   1860.4 
   264    8717.0   9063.0   6588.0   6519.0   5796.0   1860.4 
   265    8365.0   8444.0   6306.0   6143.0   5261.0   1860.4 
   266    7963.0   7863.0   6004.0   5741.0   4791.0   1860.4 
   267    7645.0   7446.0   5773.0   5439.0   4467.0   1860.4 
   268    7277.0   6989.0   5508.0   5101.0   4124.0   1860.4 
   269    6949.0   6600.0   5274.0   4812.0   3843.0   1860.4 
   270    6663.0   6270.0   5108.0   4610.0   3653.0   1860.4 
   271    6464.0   6044.0   4926.0   4394.0   3451.0   1860.4 
   272    6245.0   5800.0   4768.0   4211.0   3280.0   1860.4 
   273    6057.0   5593.0   4632.0   4056.0   3134.0   1860.4 
   274    5927.0   5450.0   4537.0   3948.0   3033.0   1860.4 
   275    5784.0   5296.0   4432.0   3831.0   2925.0   1860.4 
   276    5662.0   5165.0   4342.0   3730.0   2833.0   1860.4 
   277    5575.0   5072.0   4278.0   3660.0   2770.0   1860.4 
   278    5481.0   4972.0   4208.0   3583.0   2701.0   1860.4 
   279    5399.0   4885.0   4146.0   3517.0   2642.0   1860.4 
   280    5341.0   4825.0   4103.0   3469.0   2599.0   1860.4 
   281    5277.0   4757.0   4055.0   3417.0   2546.0   1860.4 
   282    5221.0   4699.0   4011.0   3371.0   2499.0   1860.4 
   283    5181.0   4657.0   3981.0   3338.0   2464.0   1860.4 
   284    5136.0   4610.0   3945.0   3301.0   2427.0   1860.4 
   285    5096.0   4570.0   3915.0   3268.0   2397.0   1860.4 
   286    5061.0   4533.0   3886.0   3239.0   2377.0   1860.4 
   287    5035.0   4508.0   3867.0   3218.0   2353.0   1860.4 
   288    5006.0   4478.0   3844.0   3194.0   2328.0   1860.4 
   289    4980.0   4451.0   3822.0   3171.0   2299.0   1860.4 
   290    4960.0   4431.0   3807.0   3154.0   2279.0   1860.4 
   291    4939.0   4410.0   3789.0   3136.0   2255.0   1860.4 
   292    4919.0   4389.0   3773.0   3118.0   2234.0   1860.4 
   293    4905.0   4374.0   3761.0   3106.0   2220.0   1860.4 
   294    4887.0   4357.0   3747.0   3091.0   2204.0   1860.4 
   295    4872.0   4341.0   3733.0   3077.0   2190.0   1860.4 
   296    4860.0   4329.0   3723.0   3066.0   2179.0   1860.4 
   297    4846.0   4316.0   3712.0   3054.0   2166.0   1860.4 
   298    4834.0   4303.0   3701.0   3042.0   2153.0   1860.4 
   299    4822.0   4291.0   3693.0   3034.0   2144.0   1860.4 
   300    4813.0   4282.0   3683.0   3024.0   2134.0   1860.4 
   301    4803.0   4271.0   3674.0   3014.0   2125.0   1860.4 
   302    4792.0   4261.0   3665.0   3005.0   2118.0   1860.4 
   303    4785.0   4254.0   3658.0   2999.0   2111.0   1860.4 
   304    4777.0   4245.0   3651.0   2991.0   2103.0   1860.4 
   305    4768.0   4236.0   3643.0   2983.0   2095.0   1860.4 
   306    4762.0   4230.0   3638.0   2977.0   2090.0   1860.4 
   307    4754.0   4223.0   3631.0   2971.0   2084.0   1860.4 
   308    4747.0   4216.0   3624.0   2963.0   2077.0   1860.4 
   309    4742.0   4210.0   3620.0   2958.0   2072.0   1860.4 
   310    4736.0   4204.0   3614.0   2952.0   2067.0   1860.4 
   311    4729.0   4197.0   3608.0   2946.0   2063.0   1860.4 
   312    4725.0   4192.0   3604.0   2942.0   2061.0   1860.4 
   313    4719.0   4187.0   3598.0   2935.0   2057.0   1860.4 
   314    4713.0   4181.0   3593.0   2930.0   2053.0   1860.4 
   315    4708.0   4176.0   3588.0   2926.0   2052.0   1860.4 
   316    4703.0   4171.0   3585.0   2921.0   2049.0   1860.4 
   317    4699.0   4166.0   3580.0   2917.0   2047.0   1860.4 
   318    4694.0   4162.0   3576.0   2912.0   2044.0   1860.4 
   319    4690.0   4158.0   3573.0   2908.0   2043.0   1860.4 
   320    4687.0   4154.0   3569.0   2905.0   2039.0   1860.4 
   321    4682.0   4149.0   3564.0   2900.0   2034.0   1860.4 
   322    4679.0   4146.0   3562.0   2897.0   2031.0   1860.4 
   323    4674.0   4142.0   3558.0   2893.0   2028.0   1860.4 
   324    4671.0   4138.0   3554.0   2890.0   2026.0   1860.4 
   325    4668.0   4135.0   3551.0   2887.0   2023.0   1860.4 
   326    4665.0   4132.0   3548.0   2883.0   2022.0   1860.4 
   327    4661.0   4128.0   3545.0   2880.0   2022.0   1860.4 
   328    4658.0   4125.0   3542.0   2878.0   2022.0   1860.4 
   329    4655.0   4122.0   3540.0   2874.0   2021.0   1860.4 
   330    4652.0   4119.0   3536.0   2871.0   2020.0   1860.4 
   331    4649.0   4115.0   3533.0   2868.0   2017.0   1860.4 
   332    4646.0   4113.0   3531.0   2865.0   2014.0   1860.4 
   333    4643.0   4110.0   3528.0   2863.0   2011.0   1860.4 
   334    4641.0   4107.0   3525.0   2860.0   2009.0   1860.4 
   335    4639.0   4105.0   3523.0   2857.0   2007.0   1860.4 
   336    4636.0   4103.0   3521.0   2856.0   2006.0   1860.4 
   337    4633.0   4099.0   3519.0   2852.0   2004.0   1860.4 
   338    4631.0   4097.0   3516.0   2850.0   2001.0   1860.4 
   339    4629.0   4095.0   3514.0   2848.0   2000.0   1860.4 
   340    4626.0   4093.0   3512.0   2845.0   1999.0   1860.4 
   341    4625.0   4091.0   3511.0   2844.0   1998.0   1860.4 
   342    4622.0   4088.0   3508.0   2841.0   1996.0   1860.4 
   343    4620.0   4086.0   3506.0   2839.0   1994.0   1860.4 
   344    4618.0   4084.0   3503.0   2837.0   1992.0   1860.4 
   345    4616.0   4082.0   3502.0   2835.0   1992.0   1860.4 
   346    4614.0   4080.0   3501.0   2834.0   1992.0   1860.4 
   347    4612.0   4078.0   3498.0   2831.0   1991.0   1860.4 
   348    4610.0   4077.0   3497.0   2830.0   1991.0   1860.4 
   349    4608.0   4075.0   3495.0   2828.0   1991.0   1860.4 
   350    4607.0   4072.0   3493.0   2826.0   1991.0   1860.4 
   351    4605.0   4071.0   3492.0   2825.0   1990.0   1860.4 
   352    4604.0   4070.0   3490.0   2823.0   1990.0   1860.4 
   353    4601.0   4067.0   3488.0   2821.0   1989.0   1860.4 
   354    4600.0   4066.0   3487.0   2820.0   1989.0   1860.4 
   355    4599.0   4064.0   3485.0   2818.0   1988.0   1860.4 
   356    4597.0   4063.0   3484.0   2816.0   1987.0   1860.4 
   357    4595.0   4061.0   3483.0   2815.0   1986.0   1860.4 
   358    4594.0   4059.0   3481.0   2813.0   1985.0   1860.4 
   359    4592.0   4058.0   3479.0   2811.0   1984.0   1860.4 
   360    4591.0   4057.0   3478.0   2810.0   1983.0   1860.4 
   361    4590.0   4056.0   3477.0   2809.0   1983.0   1860.4 
   362    4589.0   4054.0   3476.0   2808.0   1983.0   1860.4 
   363    4586.0   4052.0   3474.0   2806.0   1982.0   1860.4 
   364    4586.0   4051.0   3473.0   2805.0   1982.0   1860.4 
   365    4584.0   4049.0   3472.0   2803.0   1982.0   1860.4 
   366    4583.0   4048.0   3470.0   2801.0   1981.0   1860.4 
   367    4581.0   4047.0   3469.0   2800.0   1980.0   1860.4 
   368    4580.0   4045.0   3468.0   2799.0   1980.0   1860.4 
   369    4579.0   4045.0   3466.0   2798.0   1980.0   1860.4 
   370    4578.0   4043.0   3466.0   2797.0   1980.0   1860.4 
   371    4577.0   4042.0   3465.0   2796.0   1980.0   1860.4 
   372    4576.0   4041.0   3464.0   2795.0   1980.0   1860.4 
   373    4574.0   4039.0   3462.0   2793.0   1979.0   1860.4 
   374    4574.0   4039.0   3462.0   2793.0   1980.0   1860.4 
   375    4572.0   4037.0   3460.0   2791.0   1979.0   1860.4 
   376    4572.0   4036.0   3460.0   2791.0   1979.0   1860.4 
   377    4571.0   4036.0   3459.0   2789.0   1979.0   1860.4 
   378    4569.0   4034.0   3457.0   2788.0   1979.0   1860.4 
   379    4568.0   4033.0   3456.0   2787.0   1979.0   1860.4 
   380    4567.0   4032.0   3456.0   2786.0   1978.0   1860.4 
   381    4566.0   4031.0   3454.0   2785.0   1977.0   1860.4 
   382    4565.0   4030.0   3453.0   2783.0   1976.0   1860.4 
   383    4564.0   4029.0   3452.0   2783.0   1976.0   1860.4 
   384    4563.0   4029.0   3452.0   2782.0   1976.0   1860.4 
   385    4562.0   4027.0   3450.0   2781.0   1975.0   1860.4 
   386    4562.0   4027.0   3450.0   2780.0   1975.0   1860.4 
   387    4561.0   4026.0   3449.0   2780.0   1974.0   1860.4 
   388    4559.0   4025.0   3448.0   2778.0   1974.0   1860.4 
   389    4559.0   4024.0   3447.0   2778.0   1974.0   1860.4 
   390    4558.0   4023.0   3446.0   2777.0   1974.0   1860.4 
   391    4557.0   4022.0   3446.0   2777.0   1974.0   1860.4 
   392    4556.0   4021.0   3445.0   2775.0   1974.0   1860.4 
   393    4555.0   4021.0   3445.0   2775.0   1973.0   1860.4 
   394    4555.0   4019.0   3443.0   2774.0   1973.0   1860.4 
   395    4554.0   4019.0   3443.0   2773.0   1971.0   1860.4 
   396    4553.0   4018.0   3442.0   2772.0   1970.0   1860.4 
   397    4553.0   4017.0   3441.0   2772.0   1968.0   1860.4 
   398    4552.0   4017.0   3440.0   2770.0   1967.0   1860.4 
   399    4551.0   4016.0   3440.0   2770.0   1967.0   1860.4 
   400    4551.0   4015.0   3439.0   2770.0   1967.0   1860.4 
   401    4549.0   4014.0   3438.0   2768.0   1967.0   1860.4 
   402    4548.0   4014.0   3437.0   2768.0   1967.0   1860.4 
   403    4548.0   4013.0   3437.0   2767.0   1966.0   1860.4 
   404    4547.0   4012.0   3436.0   2766.0   1965.0   1860.4 
   405    4546.0   4011.0   3435.0   2765.0   1965.0   1860.4 
   406    4546.0   4011.0   3435.0   2765.0   1964.0   1860.4 
   407    4546.0   4010.0   3435.0   2765.0   1964.0   1860.4 
   408    4545.0   4009.0   3434.0   2763.0   1964.0   1860.4 
   409    4544.0   4009.0   3433.0   2763.0   1964.0   1860.4 
   410    4544.0   4008.0   3433.0   2763.0   1964.0   1860.4 
   411    4542.0   4007.0   3432.0   2762.0   1963.0   1860.4 
   412    4542.0   4007.0   3431.0   2761.0   1962.0   1860.4 
   413    4542.0   4006.0   3431.0   2760.0   1962.0   1860.4 
   414    4541.0   4005.0   3430.0   2760.0   1962.0   1860.4 
   415    4540.0   4005.0   3430.0   2759.0   1962.0   1860.4 
   416    4540.0   4005.0   3430.0   2759.0   1964.0   1860.4 
   417    4539.0   4004.0   3428.0   2758.0   1963.0   1860.4 
   418    4539.0   4003.0   3428.0   2757.0   1962.0   1860.4 
   419    4538.0   4003.0   3427.0   2757.0   1962.0   1860.4 
   420    4538.0   4002.0   3426.0   2756.0   1963.0   1860.4 
   421    4537.0   4001.0   3426.0   2756.0   1964.0   1860.4 
   422    4537.0   4002.0   3426.0   2756.0   1964.0   1860.4 
   423    4536.0   4001.0   3425.0   2755.0   1963.0   1860.4 
   424    4535.0   4000.0   3425.0   2754.0   1962.0   1860.4 
   425    4535.0   4000.0   3425.0   2754.0   1962.0   1860.4 
   426    4534.0   3999.0   3423.0   2753.0   1960.0   1860.4 
   427    4534.0   3998.0   3423.0   2752.0   1959.0   1860.4 
   428    4533.0   3998.0   3423.0   2752.0   1959.0   1860.4 
   429    4533.0   3997.0   3423.0   2752.0   1960.0   1860.4 
   430    4533.0   3997.0   3422.0   2752.0   1959.0   1860.4 
   431    4531.0   3996.0   3421.0   2750.0   1959.0   1860.4 
   432    4531.0   3996.0   3421.0   2750.0   1958.0   1860.4 
   433    4531.0   3995.0   3421.0   2750.0   1959.0   1860.4 
   434    4531.0   3995.0   3420.0   2749.0   1959.0   1860.4 
   435    4530.0   3995.0   3420.0   2749.0   1960.0   1860.4 
   436    4530.0   3994.0   3420.0   2749.0   1960.0   1860.4 
   437    4529.0   3993.0   3419.0   2748.0   1960.0   1860.4 
   438    4529.0   3994.0   3419.0   2748.0   1961.0   1860.4 
   439    4528.0   3993.0   3418.0   2747.0   1960.0   1860.4 
   440    4527.0   3992.0   3417.0   2746.0   1959.0   1860.4 
   441    4528.0   3992.0   3417.0   2747.0   1960.0   1860.4 
   442    4527.0   3991.0   3417.0   2745.0   1960.0   1860.4 
   443    4526.0   3991.0   3417.0   2745.0   1961.0   1860.4 
   444    4526.0   3990.0   3415.0   2745.0   1960.0   1860.4 
   445    4525.0   3990.0   3415.0   2744.0   1960.0   1860.4 
   446    4525.0   3989.0   3415.0   2744.0   1961.0   1860.4 
   447    4524.0   3989.0   3414.0   2743.0   1961.0   1860.4 
   448    4525.0   3989.0   3415.0   2743.0   1962.0   1860.4 
   449    4524.0   3988.0   3414.0   2742.0   1963.0   1860.4 
   450    4524.0   3988.0   3414.0   2742.0   1964.0   1860.4 
   451    4524.0   3988.0   3413.0   2742.0   1965.0   1860.4 
   452    4524.0   3988.0   3413.0   2742.0   1965.0   1860.4 
   453    4522.0   3987.0   3412.0   2741.0   1965.0   1860.4 
   454    4522.0   3987.0   3412.0   2740.0   1965.0   1860.4 
   455    4522.0   3986.0   3412.0   2740.0   1966.0   1860.4 
   456    4522.0   3986.0   3411.0   2740.0   1967.0   1860.4 
   457    4521.0   3985.0   3411.0   2740.0   1967.0   1860.4 
   458    4521.0   3985.0   3411.0   2740.0   1968.0   1860.4 
   459    4520.0   3985.0   3410.0   2739.0   1968.0   1860.4 
   460    4520.0   3984.0   3410.0   2739.0   1969.0   1860.4 
   461    4520.0   3984.0   3410.0   2739.0   1970.0   1860.4 
   462    4519.0   3983.0   3409.0   2738.0   1970.0   1860.4 
   463    4519.0   3983.0   3409.0   2737.0   1969.0   1860.4 
   464    4518.0   3983.0   3408.0   2737.0   1969.0   1860.4 
   465    4518.0   3983.0   3408.0   2737.0   1969.0   1860.4 
   466    4518.0   3982.0   3408.0   2737.0   1969.0   1860.4 
   467    4518.0   3982.0   3408.0   2736.0   1968.0   1860.4 
   468    4517.0   3981.0   3407.0   2736.0   1968.0   1860.4 
   469    4517.0   3981.0   3407.0   2735.0   1968.0   1860.4 
   470    4517.0   3981.0   3407.0   2735.0   1968.0   1860.4 
   471    4516.0   3981.0   3406.0   2735.0   1967.0   1860.4 
   472    4516.0   3980.0   3406.0   2734.0   1967.0   1860.4 
   473    4516.0   3980.0   3406.0   2735.0   1967.0   1860.4 
   474    4516.0   3979.0   3406.0   2734.0   1967.0   1860.4 
   475    4515.0   3979.0   3405.0   2734.0   1967.0   1860.4 
   476    4515.0   3979.0   3406.0   2734.0   1967.0   1860.4 
   477    4515.0   3979.0   3405.0   2733.0   1968.0   1860.4 
   478    4515.0   3978.0   3405.0   2733.0   1968.0   1860.4 
   479    4514.0   3979.0   3404.0   2733.0   1967.0   1860.4 
   480    4514.0   3978.0   3404.0   2733.0   1966.0   1860.4 
   481    4513.0   3977.0   3403.0   2732.0   1965.0   1860.4 
   482    4513.0   3978.0   3404.0   2732.0   1965.0   1860.4 
   483    4513.0   3977.0   3403.0   2732.0   1964.0   1860.4 
   484    4513.0   3977.0   3403.0   2732.0   1964.0   1860.4 
   485    4512.0   3976.0   3403.0   2730.0   1963.0   1860.4 
   486    4512.0   3976.0   3402.0   2730.0   1962.0   1860.4 
   487    4511.0   3976.0   3402.0   2730.0   1962.0   1860.4 
   488    4511.0   3975.0   3402.0   2730.0   1961.0   1860.4 
   489    4512.0   3976.0   3402.0   2730.0   1961.0   1860.4 
   490    4511.0   3975.0   3401.0   2729.0   1961.0   1860.4 
   491    4510.0   3975.0   3401.0   2729.0   1961.0   1860.4 
   492    4511.0   3975.0   3401.0   2730.0   1961.0   1860.4 
   493    4510.0   3974.0   3401.0   2729.0   1961.0   1860.4 
   494    4510.0   3974.0   3400.0   2729.0   1962.0   1860.4 
   495    4510.0   3974.0   3400.0   2728.0   1962.0   1860.4 
   496    4510.0   3974.0   3400.0   2728.0   1962.0   1860.4 
   497    4509.0   3973.0   3399.0   2728.0   1962.0   1860.4 
   498    4509.0   3973.0   3399.0   2727.0   1962.0   1860.4 
   499    4509.0   3973.0   3400.0   2728.0   1963.0   1860.4 
   500    4509.0   3973.0   3399.0   2727.0   1963.0   1860.4 
   501    4507.0   3972.0   3399.0   2727.0   1962.0   1860.4 
   502    4509.0   3972.0   3399.0   2727.0   1963.0   1860.4 
   503    4508.0   3972.0   3399.0   2727.0   1962.0   1860.4 
   504    4507.0   3971.0   3398.0   2726.0   1962.0   1860.4 
   505    4508.0   3972.0   3398.0   2727.0   1962.0   1860.4 
   506    4507.0   3971.0   3397.0   2726.0   1961.0   1860.4 
   507    4507.0   3971.0   3398.0   2726.0   1961.0   1860.4 
   508    4507.0   3972.0   3398.0   2726.0   1961.0   1860.4 
   509    4506.0   3971.0   3397.0   2725.0   1961.0   1860.4 
   510    4506.0   3970.0   3397.0   2725.0   1961.0   1860.4 
   511    4506.0   3970.0   3396.0   2724.0   1961.0   1860.4 
   512    4506.0   3970.0   3397.0   2725.0   1961.0   1860.4 
   513    4505.0   3969.0   3396.0   2724.0   1960.0   1860.4 
   514    4506.0   3970.0   3397.0   2724.0   1959.0   1860.4 
   515    4505.0   3970.0   3396.0   2724.0   1958.0   1860.4 
   516    4505.0   3969.0   3395.0   2724.0   1958.0   1860.4 
   517    4505.0   3969.0   3396.0   2724.0   1958.0   1860.4 
   518    4505.0   3969.0   3395.0   2723.0   1957.0   1860.4 
   519    4504.0   3968.0   3395.0   2724.0   1957.0   1860.4 
   520    4504.0   3968.0   3394.0   2722.0   1955.0   1860.4 
