 0   0   'Jason Heat Flow'
 0.000000  0.000000  0000  0.0
9999 1 5
   83
   251
         1815.8   1872.5   1888.3   1859.5   1908.4   1868.9 
   78    1809.0   1858.0   1876.0   1850.0   1899.0   1859.2 
   79    1810.0   1858.0   1876.0   1850.0   1899.0   1859.2 
   80    1809.0   1858.0   1876.0   1850.0   1899.0   1859.2 
   81    1810.0   1858.0   1876.0   1850.0   1899.0   1859.2 
   82    1809.0   1858.0   1876.0   1850.0   1899.0   1859.2 
   83    1809.0   1859.0   1876.0   1850.0   1898.0   1859.2 
   84    1813.0   1864.0   1880.0   1849.0   1897.0   1859.2 
   85    1907.0   1970.0   2007.0   1891.0   1909.0   1859.2 
   86    2209.0   2225.0   2229.0   2019.0   1967.0   1859.2 
   87    2646.0   2547.0   2477.0   2140.0   2026.0   1859.2 
   88    3024.0   2819.0   2678.0   2301.0   2102.0   1859.2 
   89    3486.0   3155.0   2922.0   2462.0   2178.0   1859.2 
   90    3915.0   3474.0   3152.0   2618.0   2251.0   1859.2 
   91    4228.0   3710.0   3323.0   2736.0   2305.0   1859.2 
   92    4580.0   3982.0   3520.0   2874.0   2370.0   1859.2 
   93    4890.0   4227.0   3698.0   3000.0   2429.0   1859.2 
   94    5112.0   4405.0   3827.0   3094.0   2473.0   1859.2 
   95    5358.0   4605.0   3974.0   3200.0   2525.0   1859.2 
   96    5573.0   4784.0   4106.0   3296.0   2571.0   1859.2 
   97    5727.0   4912.0   4202.0   3367.0   2606.0   1859.2 
   98    5897.0   5058.0   4311.0   3447.0   2646.0   1859.2 
   99    6048.0   5188.0   4409.0   3520.0   2683.0   1859.2 
   100    6180.0   5281.0   4480.0   3573.0   2711.0   1859.2 
   101    6275.0   5387.0   4562.0   3633.0   2742.0   1859.2 
   102    6381.0   5483.0   4636.0   3690.0   2772.0   1859.2 
   103    6476.0   5569.0   4703.0   3740.0   2799.0   1859.2 
   104    6545.0   5632.0   4753.0   3778.0   2820.0   1859.2 
   105    6622.0   5703.0   4810.0   3820.0   2843.0   1859.2 
   106    6692.0   5768.0   4863.0   3861.0   2865.0   1859.2 
   107    6742.0   5817.0   4901.0   3890.0   2881.0   1859.2 
   108    6801.0   5871.0   4946.0   3924.0   2900.0   1859.2 
   109    6853.0   5922.0   4988.0   3956.0   2919.0   1859.2 
   110    6891.0   5959.0   5019.0   3980.0   2932.0   1859.2 
   111    6935.0   6002.0   5055.0   4008.0   2949.0   1859.2 
   112    6976.0   6042.0   5089.0   4033.0   2964.0   1859.2 
   113    7006.0   6073.0   5115.0   4053.0   2975.0   1859.2 
   114    7041.0   6107.0   5144.0   4076.0   2989.0   1859.2 
   115    7073.0   6140.0   5172.0   4098.0   3002.0   1859.2 
   116    7102.0   6170.0   5199.0   4114.0   3011.0   1859.2 
   117    7125.0   6193.0   5219.0   4134.0   3022.0   1859.2 
   118    7152.0   6220.0   5242.0   4152.0   3034.0   1859.2 
   119    7175.0   6244.0   5264.0   4169.0   3043.0   1859.2 
   120    7194.0   6264.0   5282.0   4182.0   3052.0   1859.2 
   121    7216.0   6287.0   5302.0   4198.0   3062.0   1859.2 
   122    7236.0   6308.0   5321.0   4212.0   3070.0   1859.2 
   123    7251.0   6325.0   5336.0   4224.0   3077.0   1859.2 
   124    7269.0   6344.0   5353.0   4237.0   3085.0   1859.2 
   125    7287.0   6362.0   5370.0   4251.0   3093.0   1859.2 
   126    7300.0   6377.0   5383.0   4261.0   3099.0   1859.2 
   127    7316.0   6393.0   5398.0   4272.0   3107.0   1859.2 
   128    7330.0   6409.0   5412.0   4283.0   3113.0   1859.2 
   129    7345.0   6421.0   5424.0   4292.0   3119.0   1859.2 
   130    7356.0   6436.0   5437.0   4303.0   3125.0   1859.2 
   131    7369.0   6450.0   5450.0   4313.0   3132.0   1859.2 
   132    7381.0   6464.0   5463.0   4323.0   2976.0   1859.2 
   133    7390.0   6474.0   5473.0   4330.0   3143.0   1859.2 
   134    7402.0   6487.0   5484.0   4339.0   3148.0   1859.2 
   135    7413.0   6499.0   5496.0   4348.0   3154.0   1859.2 
   136    7421.0   6508.0   5504.0   4354.0   3158.0   1859.2 
   137    7432.0   6519.0   5514.0   4363.0   3163.0   1859.2 
   138    7442.0   6530.0   5525.0   4371.0   3168.0   1859.2 
   139    7448.0   6537.0   5532.0   4377.0   3172.0   1859.2 
   140    7458.0   6548.0   5542.0   4384.0   3177.0   1859.2 
   141    7467.0   6558.0   5551.0   4391.0   3181.0   1859.2 
   142    7474.0   6565.0   5558.0   4397.0   3185.0   1859.2 
   143    7482.0   6574.0   5567.0   4404.0   3189.0   1859.2 
   144    7489.0   6583.0   5575.0   4410.0   3193.0   1859.2 
   145    7497.0   6592.0   5583.0   4415.0   3197.0   1859.2 
   146    7503.0   6599.0   5589.0   4421.0   3201.0   1859.2 
   147    7510.0   6606.0   5597.0   4428.0   3204.0   1859.2 
   148    7518.0   6614.0   5604.0   4433.0   3208.0   1859.2 
   149    7522.0   6620.0   5610.0   4437.0   3210.0   1859.2 
   150    7529.0   6627.0   5617.0   4443.0   3214.0   1859.2 
   151    7536.0   6635.0   5624.0   4449.0   3217.0   1859.2 
   152    7541.0   6640.0   5630.0   4453.0   3220.0   1859.2 
   153    7547.0   6647.0   5636.0   4458.0   3223.0   1859.2 
   154    7553.0   6654.0   5642.0   4463.0   3227.0   1859.2 
   155    7557.0   6659.0   5647.0   4466.0   3229.0   1859.2 
   156    7563.0   6666.0   5653.0   4471.0   3232.0   1859.2 
   157    7569.0   6672.0   5659.0   4476.0   3235.0   1859.2 
   158    7573.0   6677.0   5664.0   4480.0   3237.0   1859.2 
   159    7578.0   6682.0   5669.0   4484.0   3240.0   1859.2 
   160    7583.0   6688.0   5675.0   4488.0   3243.0   1859.2 
   161    7588.0   6693.0   5680.0   4492.0   3245.0   1859.2 
   162    7592.0   6698.0   5684.0   4496.0   3247.0   1859.2 
   163    7596.0   6703.0   5689.0   4499.0   3249.0   1859.2 
   164    7601.0   6709.0   5694.0   4504.0   3252.0   1859.2 
   165    7605.0   6712.0   5698.0   4507.0   3255.0   1859.2 
   166    7609.0   6717.0   5702.0   4511.0   3257.0   1859.2 
   167    7613.0   6722.0   5708.0   4514.0   3259.0   1859.2 
   168    7617.0   6726.0   5711.0   4517.0   3261.0   1859.2 
   169    7621.0   6731.0   5716.0   4521.0   3263.0   1859.2 
   170    7625.0   6735.0   5720.0   4524.0   3266.0   1859.2 
   171    7628.0   6739.0   5724.0   4527.0   3267.0   1859.2 
   172    7631.0   6743.0   5728.0   4529.0   3269.0   1859.2 
   173    7635.0   6747.0   5732.0   4533.0   3272.0   1859.2 
   174    7638.0   6752.0   5736.0   4536.0   3273.0   1859.2 
   175    7642.0   6755.0   5739.0   4539.0   3275.0   1859.2 
   176    7645.0   6759.0   5743.0   4542.0   3277.0   1859.2 
   177    7648.0   6763.0   5747.0   4545.0   3278.0   1859.2 
   178    7652.0   6766.0   5749.0   4547.0   3281.0   1859.2 
   179    7655.0   6770.0   5753.0   4550.0   3283.0   1859.2 
   180    7658.0   6773.0   5756.0   4553.0   3284.0   1859.2 
   181    7660.0   6776.0   5759.0   4555.0   3286.0   1859.2 
   182    7664.0   6780.0   5763.0   4558.0   3287.0   1859.2 
   183    7666.0   6784.0   5767.0   4561.0   3289.0   1859.2 
   184    7670.0   6786.0   5769.0   4562.0   3290.0   1859.2 
   185    7672.0   6790.0   5773.0   4565.0   3292.0   1859.2 
   186    7674.0   6793.0   5776.0   4568.0   3293.0   1859.2 
   187    7678.0   6795.0   5778.0   4570.0   3295.0   1859.2 
   188    7680.0   6798.0   5782.0   4572.0   3297.0   1859.2 
   189    7683.0   6802.0   5785.0   4575.0   3298.0   1859.2 
   190    7686.0   6805.0   5787.0   4577.0   3299.0   1859.2 
   191    7687.0   6808.0   5790.0   4579.0   3301.0   1859.2 
   192    7690.0   6811.0   5793.0   4581.0   3302.0   1859.2 
   193    7693.0   6814.0   5796.0   4584.0   3304.0   1859.2 
   194    7694.0   6815.0   5798.0   4585.0   3305.0   1859.2 
   195    7697.0   6818.0   5800.0   4588.0   3306.0   1859.2 
   196    7700.0   6822.0   5804.0   4590.0   3307.0   1859.2 
   197    7702.0   6824.0   5806.0   4591.0   3308.0   1859.2 
   198    7704.0   6826.0   5808.0   4593.0   3310.0   1859.2 
   199    7706.0   6829.0   5811.0   4595.0   3311.0   1859.2 
   200    7708.0   6831.0   5812.0   4597.0   3312.0   1859.2 
   201    7710.0   6834.0   5815.0   4599.0   3313.0   1859.2 
   202    7713.0   6836.0   5818.0   4601.0   3315.0   1859.2 
   203    7714.0   6839.0   5821.0   4602.0   3315.0   1859.2 
   204    7716.0   6841.0   5822.0   4604.0   3316.0   1859.2 
   205    7718.0   6843.0   5825.0   4606.0   3318.0   1859.2 
   206    7721.0   6846.0   5827.0   4608.0   3318.0   1859.2 
   207    7722.0   6848.0   5829.0   4610.0   3320.0   1859.2 
   208    7723.0   6849.0   5830.0   4610.0   3320.0   1859.2 
   209    7726.0   6852.0   5833.0   4613.0   3322.0   1859.2 
   210    7727.0   6854.0   5834.0   4615.0   3323.0   1859.2 
   211    7730.0   6856.0   5837.0   4617.0   3324.0   1859.2 
   212    7731.0   6858.0   5839.0   4618.0   3325.0   1859.2 
   213    7733.0   6860.0   5841.0   4619.0   3326.0   1859.2 
   214    7735.0   6863.0   5843.0   4621.0   3326.0   1859.2 
   215    7737.0   6864.0   5845.0   4623.0   3327.0   1859.2 
   216    7738.0   6866.0   5846.0   4624.0   3329.0   1859.2 
   217    7739.0   6868.0   5848.0   4626.0   3330.0   1859.2 
   218    7742.0   6870.0   5851.0   4627.0   3331.0   1859.2 
   219    7743.0   6872.0   5852.0   4628.0   3332.0   1859.2 
   220    7744.0   6874.0   5854.0   4630.0   3333.0   1859.2 
   221    7746.0   6876.0   5856.0   4631.0   3334.0   1859.2 
   222    7748.0   6877.0   5857.0   4633.0   3335.0   1859.2 
   223    7749.0   6879.0   5859.0   4633.0   3336.0   1859.2 
   224    7751.0   6881.0   5861.0   4635.0   3337.0   1859.2 
   225    7752.0   6883.0   5862.0   4637.0   3338.0   1859.2 
   226    7753.0   6884.0   5864.0   4638.0   3338.0   1859.2 
   227    7756.0   6886.0   5865.0   4639.0   3339.0   1859.2 
   228    7756.0   6888.0   5868.0   4640.0   3340.0   1859.2 
   229    7758.0   6889.0   5869.0   4641.0   3340.0   1859.2 
   230    7759.0   6891.0   5870.0   4643.0   3341.0   1859.2 
   231    7761.0   6892.0   5873.0   4644.0   3342.0   1859.2 
   232    7762.0   6894.0   5873.0   4646.0   3343.0   1859.2 
   233    7763.0   6895.0   5875.0   4646.0   3343.0   1859.2 
   234    7765.0   6897.0   5876.0   4648.0   3344.0   1859.2 
   235    7766.0   6898.0   5879.0   4649.0   3345.0   1859.2 
   236    7767.0   6900.0   5879.0   4650.0   3346.0   1859.2 
   237    7769.0   6901.0   5882.0   4651.0   3346.0   1859.2 
   238    7770.0   6903.0   5883.0   4652.0   3347.0   1859.2 
   239    7771.0   6905.0   5884.0   4653.0   3347.0   1859.2 
   240    7772.0   6906.0   5885.0   4655.0   3349.0   1859.2 
   241    7774.0   6908.0   5887.0   4656.0   3349.0   1859.2 
   242    7774.0   6908.0   5888.0   4656.0   3350.0   1859.2 
   243    7776.0   6910.0   5890.0   4658.0   3350.0   1859.2 
   244    7777.0   6912.0   5891.0   4659.0   3351.0   1859.2 
   245    7778.0   6913.0   5892.0   4660.0   3351.0   1859.2 
   246    7779.0   6914.0   5893.0   4661.0   3352.0   1859.2 
   247    7781.0   6915.0   5895.0   4662.0   3353.0   1859.2 
   248    7782.0   6917.0   5896.0   4663.0   3354.0   1859.2 
   249    7783.0   6918.0   5897.0   4664.0   3354.0   1859.2 
   250    7783.0   6919.0   5898.0   4665.0   3355.0   1859.2 
   251    7785.0   6921.0   5900.0   4666.0   3356.0   1859.2 
   252    7792.0   6959.0   5911.0   4672.0   3372.0   1859.2 
   253    7993.0   7515.0   6125.0   4861.0   3830.0   1859.2 
   254    8469.0   8376.0   6534.0   5324.0   4577.0   1859.2 
   255    8941.0   9079.0   6911.0   5785.0   5155.0   1859.2 
   256    9545.0   9892.0   7380.0   6368.0   5791.0   1859.2 
   257   10118.0  10605.0   7818.0   6910.0   6332.0   1859.2 
   258   10539.0  11109.0   8138.0   7299.0   6705.0   1859.2 
   259   11019.0  11664.0   8502.0   7731.0   7113.0   1859.2 
   260   11446.0  12148.0   8825.0   8108.0   7461.0   1859.2 
   261   11825.0  12569.0   9114.0   8374.0   7707.0   1859.2 
   262   12090.0  12830.0   9313.0   8665.0   7959.0   1859.2 
   263   12213.0  12605.0   9354.0   8744.0   7753.0   1859.2 
   264   12043.0  12045.0   9173.0   8525.0   7250.0   1859.2 
   265   11789.0  11564.0   8957.0   8238.0   6829.0   1859.2 
   266   11415.0  11001.0   8664.0   7846.0   6360.0   1859.2 
   267   11037.0  10501.0   8380.0   7474.0   5968.0   1859.2 
   268   10751.0  10147.0   8170.0   7206.0   5705.0   1859.2 
   269   10425.0   9760.0   7935.0   6912.0   5428.0   1859.2 
   270   10137.0   9428.0   7728.0   6661.0   5198.0   1859.2 
   271    9934.0   9197.0   7582.0   6488.0   5041.0   1859.2 
   272    9710.0   8948.0   7422.0   6299.0   4874.0   1859.2 
   273    9518.0   8735.0   7284.0   6141.0   4733.0   1859.2 
   274    9384.0   8588.0   7186.0   6031.0   4634.0   1859.2 
   275    9237.0   8428.0   7080.0   5911.0   4527.0   1859.2 
   276    9110.0   8291.0   6988.0   5808.0   4435.0   1859.2 
   277    9000.0   8173.0   6907.0   5720.0   4370.0   1859.2 
   278    8923.0   8091.0   6851.0   5657.0   4299.0   1859.2 
   279    8837.0   8001.0   6788.0   5589.0   4237.0   1859.2 
   280    8764.0   7923.0   6735.0   5530.0   4183.0   1859.2 
   281    8711.0   7868.0   6695.0   5488.0   4144.0   1859.2 
   282    8653.0   7807.0   6652.0   5442.0   4101.0   1859.2 
   283    8602.0   7754.0   6614.0   5401.0   4063.0   1859.2 
   284    8566.0   7715.0   6587.0   5371.0   4035.0   1859.2 
   285    8525.0   7673.0   6555.0   5338.0   4005.0   1859.2 
   286    8488.0   7636.0   6528.0   5308.0   3976.0   1859.2 
   287    8461.0   7609.0   6508.0   5287.0   3956.0   1859.2 
   288    8432.0   7579.0   6485.0   5262.0   3933.0   1859.2 
   289    8405.0   7551.0   6465.0   5241.0   3912.0   1859.2 
   290    8381.0   7527.0   6449.0   5224.0   3896.0   1859.2 
   291    8364.0   7509.0   6432.0   5206.0   3878.0   1859.2 
   292    8344.0   7489.0   6416.0   5189.0   3861.0   1859.2 
   293    8325.0   7470.0   6402.0   5173.0   3845.0   1859.2 
   294    8312.0   7457.0   6390.0   5162.0   3834.0   1859.2 
   295    8296.0   7441.0   6378.0   5148.0   3821.0   1859.2 
   296    8282.0   7426.0   6366.0   5136.0   3809.0   1859.2 
   297    8271.0   7416.0   6357.0   5126.0   3800.0   1859.2 
   298    8258.0   7403.0   6347.0   5116.0   3789.0   1859.2 
   299    8247.0   7392.0   6337.0   5105.0   3779.0   1859.2 
   300    8237.0   7382.0   6331.0   5098.0   3771.0   1859.2 
   301    8227.0   7373.0   6322.0   5089.0   3762.0   1859.2 
   302    8217.0   7363.0   6314.0   5081.0   3753.0   1859.2 
   303    8211.0   7356.0   6308.0   5074.0   3747.0   1859.2 
   304    8201.0   7347.0   6301.0   5066.0   3739.0   1859.2 
   305    8194.0   7339.0   6294.0   5059.0   3731.0   1859.2 
   306    8186.0   7332.0   6288.0   5052.0   3726.0   1859.2 
   307    8181.0   7327.0   6283.0   5047.0   3719.0   1859.2 
   308    8174.0   7319.0   6276.0   5041.0   3713.0   1859.2 
   309    8167.0   7313.0   6271.0   5035.0   3707.0   1859.2 
   310    8162.0   7308.0   6267.0   5030.0   3702.0   1859.2 
   311    8157.0   7303.0   6262.0   5025.0   3696.0   1859.2 
   312    8151.0   7297.0   6258.0   5020.0   3691.0   1859.2 
   313    8147.0   7293.0   6254.0   5016.0   3687.0   1859.2 
   314    8142.0   7288.0   6249.0   5011.0   3682.0   1859.2 
   315    8137.0   7283.0   6245.0   5007.0   3678.0   1859.2 
   316    8133.0   7279.0   6242.0   5003.0   3674.0   1859.2 
   317    8128.0   7275.0   6237.0   4999.0   3669.0   1859.2 
   318    8124.0   7271.0   6234.0   4995.0   3665.0   1859.2 
   319    8119.0   7266.0   6231.0   4992.0   3662.0   1859.2 
   320    8117.0   7263.0   6228.0   4988.0   3658.0   1859.2 
   321    8113.0   7260.0   6224.0   4984.0   3654.0   1859.2 
   322    8109.0   7256.0   6221.0   4981.0   3649.0   1859.2 
   323    8106.0   7254.0   6219.0   4978.0   3647.0   1859.2 
   324    8103.0   7250.0   6216.0   4974.0   3643.0   1859.2 
   325    8099.0   7246.0   6213.0   4971.0   3639.0   1859.2 
   326    8097.0   7244.0   6210.0   4969.0   3637.0   1859.2 
   327    8094.0   7241.0   6207.0   4966.0   3633.0   1859.2 
   328    8091.0   7239.0   6205.0   4963.0   3631.0   1859.2 
   329    8089.0   7236.0   6203.0   4961.0   3628.0   1859.2 
   330    8086.0   7233.0   6200.0   4958.0   3626.0   1859.2 
   331    8083.0   7231.0   6198.0   4956.0   3623.0   1859.2 
   332    8081.0   7228.0   6196.0   4953.0   3621.0   1859.2 
   333    8078.0   7226.0   6194.0   4951.0   3618.0   1859.2 
   334    8075.0   7223.0   6192.0   4948.0   3615.0   1859.2 
   335    8073.0   7221.0   6189.0   4946.0   3613.0   1859.2 
   336    8071.0   7220.0   6188.0   4945.0   3611.0   1859.2 
   337    8069.0   7217.0   6186.0   4943.0   3609.0   1859.2 
   338    8067.0   7216.0   6183.0   4940.0   3607.0   1859.2 
   339    8065.0   7213.0   6182.0   4939.0   3605.0   1859.2 
   340    8063.0   7212.0   6180.0   4936.0   3603.0   1859.2 
   341    8061.0   7209.0   6178.0   4934.0   3601.0   1859.2 
   342    8060.0   7208.0   6177.0   4933.0   3599.0   1859.2 
   343    8058.0   7206.0   6176.0   4931.0   3597.0   1859.2 
   344    8055.0   7205.0   6174.0   4929.0   3595.0   1859.2 
   345    8055.0   7203.0   6172.0   4928.0   3593.0   1859.2 
   346    8052.0   7201.0   6171.0   4926.0   3592.0   1859.2 
   347    8050.0   7200.0   6169.0   4925.0   3590.0   1859.2 
   348    8049.0   7198.0   6168.0   4923.0   3588.0   1859.2 
   349    8048.0   7197.0   6167.0   4922.0   3586.0   1859.2 
   350    8046.0   7196.0   6165.0   4920.0   3585.0   1859.2 
   351    8045.0   7194.0   6164.0   4918.0   3583.0   1859.2 
   352    8043.0   7193.0   6163.0   4918.0   3582.0   1859.2 
   353    8042.0   7191.0   6162.0   4916.0   3580.0   1859.2 
   354    8041.0   7190.0   6160.0   4914.0   3579.0   1859.2 
   355    8040.0   7189.0   6159.0   4913.0   3577.0   1859.2 
   356    8038.0   7188.0   6158.0   4912.0   3575.0   1859.2 
   357    8036.0   7186.0   6157.0   4911.0   3574.0   1859.2 
   358    8036.0   7186.0   6156.0   4910.0   3573.0   1859.2 
   359    8035.0   7184.0   6155.0   4908.0   3572.0   1859.2 
   360    8033.0   7183.0   6154.0   4907.0   3570.0   1859.2 
   361    8032.0   7182.0   6153.0   4906.0   3569.0   1859.2 
   362    8031.0   7181.0   6152.0   4905.0   3568.0   1859.2 
   363    8030.0   7180.0   6151.0   4904.0   3566.0   1859.2 
   364    8029.0   7178.0   6151.0   4903.0   3565.0   1859.2 
   365    8027.0   7178.0   6150.0   4901.0   3564.0   1859.2 
   366    8027.0   7177.0   6148.0   4901.0   3562.0   1859.2 
   367    8026.0   7176.0   6148.0   4900.0   3561.0   1859.2 
   368    8025.0   7175.0   6147.0   4899.0   3560.0   1859.2 
   369    8024.0   7175.0   6146.0   4898.0   3559.0   1859.2 
   370    8022.0   7174.0   6145.0   4897.0   3559.0   1859.2 
   371    8022.0   7173.0   6145.0   4896.0   3558.0   1859.2 
   372    8021.0   7171.0   6144.0   4895.0   3557.0   1859.2 
   373    8020.0   7171.0   6143.0   4894.0   3555.0   1859.2 
   374    8019.0   7171.0   6142.0   4894.0   3554.0   1859.2 
   375    8018.0   7170.0   6142.0   4893.0   3553.0   1859.2 
   376    8017.0   7169.0   6141.0   4892.0   3552.0   1859.2 
   377    8016.0   7167.0   6140.0   4891.0   3551.0   1859.2 
   378    8016.0   7167.0   6139.0   4890.0   3551.0   1859.2 
   379    8015.0   7167.0   6139.0   4889.0   3550.0   1859.2 
   380    8014.0   7166.0   6138.0   4888.0   3549.0   1859.2 
   381    8013.0   7165.0   6137.0   4887.0   3548.0   1859.2 
   382    8013.0   7164.0   6137.0   4887.0   3547.0   1859.2 
   383    8013.0   7163.0   6136.0   4886.0   3546.0   1859.2 
   384    8012.0   7163.0   6136.0   4886.0   3545.0   1859.2 
   385    8011.0   7163.0   6135.0   4885.0   3544.0   1859.2 
   386    8010.0   7162.0   6134.0   4884.0   3543.0   1859.2 
   387    8010.0   7161.0   6134.0   4884.0   3543.0   1859.2 
   388    8008.0   7160.0   6133.0   4883.0   3542.0   1859.2 
   389    8008.0   7160.0   6133.0   4883.0   3541.0   1859.2 
   390    8008.0   7160.0   6132.0   4882.0   3540.0   1859.2 
   391    8008.0   7159.0   6132.0   4881.0   3539.0   1859.2 
   392    8007.0   7159.0   6131.0   4881.0   3538.0   1859.2 
   393    8006.0   7158.0   6130.0   4880.0   3538.0   1859.2 
   394    8005.0   7157.0   6130.0   4879.0   3537.0   1859.2 
   395    8004.0   7157.0   6130.0   4878.0   3536.0   1859.2 
   396    8004.0   7156.0   6129.0   4878.0   3536.0   1859.2 
   397    8003.0   7156.0   6129.0   4878.0   3535.0   1859.2 
   398    8003.0   7156.0   6128.0   4877.0   3535.0   1859.2 
   399    8003.0   7155.0   6127.0   4876.0   3534.0   1859.2 
   400    8002.0   7155.0   6127.0   4876.0   3533.0   1859.2 
   401    8001.0   7154.0   6127.0   4876.0   3533.0   1859.2 
   402    8001.0   7153.0   6127.0   4875.0   3532.0   1859.2 
   403    8001.0   7153.0   6126.0   4874.0   3531.0   1859.2 
   404    8000.0   7152.0   6126.0   4874.0   3531.0   1859.2 
   405    7999.0   7152.0   6125.0   4874.0   3530.0   1859.2 
   406    7999.0   7152.0   6125.0   4873.0   3529.0   1859.2 
   407    7998.0   7152.0   6125.0   4873.0   3529.0   1859.2 
   408    7998.0   7151.0   6124.0   4872.0   3528.0   1859.2 
   409    7998.0   7151.0   6124.0   4871.0   3527.0   1859.2 
   410    7997.0   7150.0   6124.0   4871.0   3527.0   1859.2 
   411    7997.0   7150.0   6124.0   4871.0   3527.0   1859.2 
   412    7997.0   7149.0   6123.0   4870.0   3526.0   1859.2 
   413    7996.0   7149.0   6123.0   4870.0   3525.0   1859.2 
   414    7996.0   7149.0   6122.0   4869.0   3525.0   1859.2 
   415    7995.0   7149.0   6121.0   4869.0   3525.0   1859.2 
   416    7995.0   7149.0   6121.0   4869.0   3524.0   1859.2 
   417    7994.0   7148.0   6121.0   4868.0   3524.0   1859.2 
   418    7994.0   7148.0   6121.0   4868.0   3523.0   1859.2 
   419    7994.0   7147.0   6121.0   4867.0   3523.0   1859.2 
   420    7994.0   7147.0   6120.0   4867.0   3523.0   1859.2 
   421    7993.0   7146.0   6120.0   4867.0   3522.0   1859.2 
   422    7993.0   7146.0   6119.0   4866.0   3522.0   1859.2 
   423    7992.0   7146.0   6119.0   4866.0   3521.0   1859.2 
   424    7992.0   7145.0   6119.0   4865.0   3520.0   1859.2 
   425    7991.0   7145.0   6118.0   4865.0   3520.0   1859.2 
   426    7991.0   7145.0   6118.0   4864.0   3520.0   1859.2 
   427    7990.0   7145.0   6118.0   4864.0   3520.0   1859.2 
   428    7990.0   7145.0   6118.0   4864.0   3518.0   1859.2 
   429    7990.0   7145.0   6118.0   4864.0   3518.0   1859.2 
   430    7989.0   7144.0   6118.0   4863.0   3518.0   1859.2 
   431    7989.0   7144.0   6117.0   4863.0   3518.0   1859.2 
   432    7989.0   7144.0   6117.0   4863.0   3517.0   1859.2 
   433    7989.0   7143.0   6117.0   4862.0   3516.0   1859.2 
   434    7989.0   7143.0   6116.0   4862.0   3516.0   1859.2 
   435    7989.0   7143.0   6116.0   4862.0   3516.0   1859.2 
   436    7988.0   7142.0   6116.0   4862.0   3515.0   1859.2 
   437    7988.0   7142.0   6115.0   4861.0   3514.0   1859.2 
   438    7988.0   7142.0   6115.0   4861.0   3514.0   1859.2 
   439    7987.0   7141.0   6115.0   4861.0   3514.0   1859.2 
   440    7987.0   7141.0   6115.0   4860.0   3514.0   1859.2 
   441    7986.0   7141.0   6115.0   4860.0   3513.0   1859.2 
   442    7986.0   7141.0   6115.0   4860.0   3513.0   1859.2 
   443    7986.0   7141.0   6115.0   4860.0   3512.0   1859.2 
   444    7986.0   7141.0   6115.0   4860.0   3512.0   1859.2 
   445    7985.0   7141.0   6114.0   4859.0   3512.0   1859.2 
   446    7985.0   7141.0   6114.0   4859.0   3511.0   1859.2 
   447    7985.0   7140.0   6114.0   4859.0   3511.0   1859.2 
   448    7984.0   7140.0   6114.0   4858.0   3511.0   1859.2 
   449    7984.0   7140.0   6113.0   4858.0   3511.0   1859.2 
   450    7984.0   7140.0   6113.0   4857.0   3511.0   1859.2 
   451    7984.0   7139.0   6113.0   4857.0   3510.0   1859.2 
   452    7984.0   7139.0   6112.0   4857.0   3509.0   1859.2 
   453    7984.0   7139.0   6112.0   4857.0   3509.0   1859.2 
   454    7984.0   7139.0   6112.0   4857.0   3509.0   1859.2 
   455    7984.0   7138.0   6112.0   4857.0   3509.0   1859.2 
   456    7983.0   7138.0   6112.0   4856.0   3508.0   1859.2 
   457    7983.0   7138.0   6112.0   4856.0   3508.0   1859.2 
   458    7983.0   7138.0   6112.0   4856.0   3508.0   1859.2 
   459    7982.0   7138.0   6112.0   4856.0   3507.0   1859.2 
   460    7982.0   7137.0   6112.0   4855.0   3507.0   1859.2 
   461    7982.0   7138.0   6112.0   4855.0   3506.0   1859.2 
   462    7982.0   7137.0   6112.0   4855.0   3506.0   1859.2 
   463    7982.0   7137.0   6111.0   4855.0   3506.0   1859.2 
   464    7981.0   7137.0   6111.0   4855.0   3506.0   1859.2 
   465    7981.0   7137.0   6111.0   4855.0   3506.0   1859.2 
   466    7981.0   7137.0   6111.0   4854.0   3505.0   1859.2 
   467    7981.0   7137.0   6110.0   4854.0   3505.0   1859.2 
   468    7980.0   7137.0   6110.0   4854.0   3505.0   1859.2 
   469    7980.0   7137.0   6110.0   4854.0   3505.0   1859.2 
   470    7980.0   7136.0   6110.0   4853.0   3504.0   1859.2 
   471    7980.0   7136.0   6110.0   4853.0   3504.0   1859.2 
   472    7980.0   7136.0   6110.0   4853.0   3503.0   1859.2 
   473    7980.0   7136.0   6110.0   4853.0   3503.0   1859.2 
   474    7980.0   7136.0   6109.0   4853.0   3503.0   1859.2 
   475    7980.0   7136.0   6109.0   4853.0   3503.0   1859.2 
   476    7980.0   7136.0   6109.0   4853.0   3503.0   1859.2 
   477    7979.0   7136.0   6109.0   4852.0   3503.0   1859.2 
   478    7979.0   7135.0   6109.0   4852.0   3502.0   1859.2 
   479    7979.0   7135.0   6109.0   4852.0   3502.0   1859.2 
   480    7979.0   7135.0   6109.0   4852.0   3501.0   1859.2 
   481    7979.0   7135.0   6109.0   4852.0   3501.0   1859.2 
   482    7979.0   7135.0   6109.0   4851.0   3501.0   1859.2 
   483    7978.0   7135.0   6109.0   4851.0   3501.0   1859.2 
   484    7978.0   7134.0   6109.0   4851.0   3501.0   1859.2 
   485    7978.0   7135.0   6109.0   4851.0   3500.0   1859.2 
   486    7978.0   7134.0   6108.0   4851.0   3500.0   1859.2 
   487    7978.0   7134.0   6108.0   4851.0   3500.0   1859.2 
   488    7978.0   7134.0   6108.0   4851.0   3500.0   1859.2 
   489    7977.0   7134.0   6108.0   4851.0   3500.0   1859.2 
   490    7977.0   7134.0   6108.0   4851.0   3499.0   1859.2 
   491    7977.0   7134.0   6108.0   4850.0   3499.0   1859.2 
   492    7977.0   7134.0   6108.0   4850.0   3498.0   1859.2 
   493    7977.0   7134.0   6108.0   4850.0   3498.0   1859.2 
   494    7977.0   7134.0   6108.0   4850.0   3498.0   1859.2 
   495    7976.0   7134.0   6107.0   4850.0   3498.0   1859.2 
   496    7976.0   7134.0   6107.0   4850.0   3498.0   1859.2 
   497    7976.0   7134.0   6107.0   4849.0   3498.0   1859.2 
   498    7976.0   7134.0   6107.0   4849.0   3498.0   1859.2 
   499    7976.0   7134.0   6107.0   4849.0   3498.0   1859.2 
   500    7976.0   7134.0   6107.0   4849.0   3498.0   1859.2 
   501    7976.0   7134.0   6107.0   4848.0   3497.0   1859.2 
   502    7975.0   7134.0   6107.0   4848.0   3496.0   1859.2 
   503    7975.0   7134.0   6107.0   4848.0   3496.0   1859.2 
   504    7975.0   7133.0   6107.0   4848.0   3496.0   1859.2 
   505    7975.0   7133.0   6107.0   4848.0   3496.0   1859.2 
   506    7975.0   7133.0   6106.0   4848.0   3496.0   1859.2 
   507    7975.0   7133.0   6107.0   4848.0   3496.0   1859.2 
   508    7975.0   7133.0   6106.0   4848.0   3494.0   1859.2 
   509    7975.0   7133.0   6106.0   4848.0   3494.0   1859.2 
   510    7975.0   7133.0   6106.0   4848.0   3494.0   1859.2 
   511    7975.0   7133.0   6106.0   4848.0   3495.0   1859.2 
   512    7975.0   7133.0   6106.0   4848.0   3495.0   1859.2 
   513    7975.0   7133.0   6106.0   4848.0   3495.0   1859.2 
   514    7975.0   7132.0   6106.0   4847.0   3494.0   1859.2 
   515    7975.0   7132.0   6106.0   4847.0   3494.0   1859.2 
   516    7975.0   7132.0   6106.0   4847.0   3494.0   1859.2 
   517    7975.0   7132.0   6106.0   4847.0   3494.0   1859.2 
   518    7975.0   7132.0   6106.0   4847.0   3494.0   1859.2 
   519    7974.0   7132.0   6106.0   4847.0   3493.0   1859.2 
   520    7974.0   7132.0   6106.0   4847.0   3493.0   1859.2 
   521    7974.0   7132.0   6106.0   4846.0   3493.0   1859.2 
   522    7974.0   7132.0   6106.0   4846.0   3493.0   1859.2 
   523    7974.0   7132.0   6106.0   4846.0   3493.0   1859.2 
   524    7974.0   7132.0   6106.0   4846.0   3493.0   1859.2 
   525    7974.0   7132.0   6106.0   4846.0   3493.0   1859.2 
   526    7973.0   7132.0   6106.0   4846.0   3492.0   1859.2 
   527    7974.0   7132.0   6106.0   4846.0   3492.0   1859.2 
   528    7973.0   7132.0   6105.0   4846.0   3492.0   1859.2 
   529    7973.0   7132.0   6105.0   4846.0   3492.0   1859.2 
   530    7973.0   7131.0   6105.0   4846.0   3492.0   1859.2 
   531    7973.0   7132.0   6105.0   4846.0   3492.0   1859.2 
   532    7973.0   7131.0   6105.0   4846.0   3492.0   1859.2 
   533    7973.0   7131.0   6105.0   4846.0   3491.0   1859.2 
   534    7973.0   7131.0   6105.0   4846.0   3491.0   1859.2 
   535    7973.0   7131.0   6105.0   4845.0   3491.0   1859.2 
   536    7973.0   7131.0   6105.0   4845.0   3491.0   1859.2 
   537    7972.0   7131.0   6105.0   4845.0   3491.0   1859.2 
   538    7972.0   7131.0   6105.0   4845.0   3490.0   1859.2 
   539    7972.0   7131.0   6105.0   4845.0   3490.0   1859.2 
   540    7972.0   7131.0   6105.0   4845.0   3490.0   1859.2 
   541    7972.0   7131.0   6105.0   4845.0   3490.0   1859.2 
   542    7972.0   7131.0   6105.0   4845.0   3490.0   1859.2 
   543    7972.0   7131.0   6105.0   4845.0   3490.0   1859.2 
   544    7972.0   7131.0   6105.0   4844.0   3490.0   1859.2 
   545    7972.0   7131.0   6105.0   4845.0   3490.0   1859.2 
   546    7972.0   7131.0   6105.0   4844.0   3490.0   1859.2 
   547    7972.0   7131.0   6105.0   4844.0   3489.0   1859.2 
   548    7972.0   7131.0   6104.0   4844.0   3489.0   1859.2 
   549    7971.0   7131.0   6104.0   4844.0   3489.0   1859.2 
   550    7972.0   7130.0   6104.0   4844.0   3489.0   1859.2 
